Shimadzu measurement
Filename
737Labor_aprilis_7_145Mg_2mN.dat
Identifier
2mN/s meres
Date 2016:4:7
Time 11:27
Indentsize=0 [æm]
 Time [s]         Load [mN]       Displ [æm] 
*****************************************************************

      0.050002      0.011232     -0.000183
      0.100004      0.007912     -0.000226
      0.150006     -0.007283     -0.000204
      0.200009     -0.005089     -0.000123
      0.250011      0.004210      0.000316
      0.300013      0.017462      0.000590
      0.350016      0.039155      0.000836
      0.399987      0.074547      0.000996
      0.449989      0.121049      0.001201
      0.499991      0.170226      0.001752
      0.549994      0.222419      0.002004
      0.599996      0.273055      0.002780
      0.649998      0.324731      0.003539
      0.700000      0.392602      0.004284
      0.750002      0.440258      0.004526
      0.800004      0.501459      0.004989
      0.850007      0.558982      0.005650
      0.900009      0.620518      0.006183
      0.950012      0.698484      0.006968
      1.000013      0.775978      0.007004
      1.050015      0.849384      0.007463
      1.099987      0.948409      0.007510
      1.149990      1.024104      0.007857
      1.199992      1.096502      0.007987
      1.249994      1.183023      0.007737
      1.299996      1.260281      0.007695
      1.349998      1.354838      0.007902
      1.399999      1.439940      0.008455
      1.450002      1.526907      0.008402
      1.500004      1.610671      0.009210
      1.550007      1.695214      0.009631
      1.600009      1.785951      0.010499
      1.650010      1.869446      0.011036
      1.700013      1.962902      0.011885
      1.750015      2.056168      0.012100
      1.799987      2.153535      0.012599
      1.849989      2.246049      0.012987
      1.899992      2.328090      0.013336
      1.949993      2.433666      0.013711
      1.999995      2.536619      0.014110
      2.049998      2.626225      0.014590
      2.100000      2.723350      0.015084
      2.150002      2.817477      0.015407
      2.200004      2.912567      0.016002
      2.250006      3.011576      0.016355
      2.300009      3.106177      0.017282
      2.350011      3.203525      0.017629
      2.400013      3.295411      0.018185
      2.450016      3.387875      0.018381
      2.499987      3.474754      0.018496
      2.549989      3.571256      0.018965
      2.599991      3.661770      0.019082
      2.649994      3.752998      0.019676
      2.699996      3.850363      0.019967
      2.749998      3.948367      0.020350
      2.800000      4.044505      0.021428
      2.850002      4.140796      0.022031
      2.900004      4.245768      0.023124
      2.950007      4.335360      0.023680
      3.000009      4.444070      0.024913
      3.050012      4.542518      0.025900
      3.100013      4.626850      0.027033
      3.150015      4.722280      0.027992
      3.199987      4.814881      0.029038
      3.249990      4.902494      0.030162
      3.299992      5.007591      0.031418
      3.349994      5.095465      0.032365
      3.399996      5.183707      0.033218
      3.449998      5.280825      0.033619
      3.500000      5.376166      0.034468
      3.550003      5.466246      0.035172
      3.600005      5.568680      0.035805
      3.650007      5.659650      0.036558
      3.700009      5.757392      0.036869
      3.750011      5.854515      0.038126
      3.800014      5.947420      0.039135
      3.850016      6.042020      0.040470
      3.899988      6.131433      0.041306
      3.949989      6.222281      0.042424
      3.999992      6.325407      0.043736
      4.049994      6.417609      0.044794
      4.099996      6.517682      0.046174
      4.149999      6.621175      0.046927
      4.200001      6.716761      0.048277
      4.250002      6.814384      0.049064
      4.300005      6.906518      0.049956
      4.350007      6.993711      0.050636
      4.400010      7.085002      0.051188
      4.450012      7.179372      0.051989
      4.500014      7.280784      0.052344
      4.550016      7.369613      0.053091
      4.599988      7.465429      0.053946
      4.649990      7.564481      0.054350
      4.699992      7.662783      0.054957
      4.749995      7.764683      0.055382
      4.799997      7.861886      0.055947
      4.849998      7.967070      0.056456
      4.900001      8.053800      0.057096
      4.950003      8.152609      0.057917
      5.000005      8.237265      0.059084
      5.050008      8.329325      0.060621
      5.100010      8.423776      0.062249
      5.150012      8.515495      0.063776
      5.200014      8.610861      0.065150
      5.249986      8.703403      0.066813
      5.299988      8.794626      0.068555
      5.349991      8.893817      0.070061
      5.399992      8.987972      0.071844
      5.449994      9.080035      0.074974
      5.499997      9.176931      0.079684
      5.549999      9.272682      0.085265
      5.600001      9.368013      0.091570
      5.650004      9.468460      0.099747
      5.700005      9.564356      0.107534
      5.750008      9.653103      0.114602
      5.800010      9.748845      0.120903
      5.850012      9.842337      0.126941
      5.900015      9.941739      0.132740
      5.949986     10.033032      0.138509
      5.999988     10.129233      0.144128
      6.049990     10.232295      0.149918
      6.099993     10.329323      0.155495
      6.149995     10.424582      0.160210
      6.199997     10.518251      0.164818
      6.250000     10.612928      0.169028
      6.300001     10.699359      0.172999
      6.350003     10.802782      0.176695
      6.400006     10.905018      0.180083
      6.450008     11.000692      0.183315
      6.500011     11.095344      0.186102
      6.550013     11.190297      0.188671
      6.600014     11.289182      0.191166
      6.649986     11.386113      0.193778
      6.700019     11.480676      0.196251
      6.749990     11.573717      0.198720
      6.799992     11.665999      0.206009
      6.849995     11.758819      0.214827
      6.899997     11.857615      0.223618
      6.949998     11.943481      0.231408
      7.000001     12.036629      0.238480
      7.050003     12.143656      0.245333
      7.100005     12.233876      0.251256
      7.150008     12.327282      0.256709
      7.200010     12.430879      0.261312
      7.250012     12.527168      0.265760
      7.300014     12.632749      0.269579
      7.349986     12.722889      0.273261
      7.399988     12.812560      0.276575
      7.449991     12.908524      0.279924
      7.499992     13.000384      0.282937
      7.549994     13.089161      0.285222
      7.599997     13.187372      0.287279
      7.649999     13.290410      0.289130
      7.700001     13.385586      0.291040
      7.750004     13.481010      0.298679
      7.800005     13.572996      0.310987
      7.850008     13.666769      0.324750
      7.900010     13.761541      0.337319
      7.950012     13.855381      0.349059
      8.000015     13.955706      0.359502
      8.049986     14.050272      0.368535
      8.099988     14.146367      0.377215
      8.149990     14.244449      0.384476
      8.199993     14.346762      0.391684
      8.249995     14.440675      0.397743
      8.299997     14.538624      0.403257
      8.350000     14.629219      0.408159
      8.400001     14.723573      0.412753
      8.450003     14.816426      0.416583
      8.500006     14.918305      0.420519
      8.550008     15.008164      0.424061
      8.600011     15.101855      0.427553
      8.650013     15.188009      0.430758
      8.700014     15.282026      0.433520
      8.749986     15.373356      0.438203
      8.799988     15.462877      0.445165
      8.849991     15.561147      0.451674
      8.899993     15.649589      0.457655
      8.949996     15.752381      0.463037
      8.999997     15.851608      0.467881
      9.049999     15.948847      0.472363
      9.100002     16.050400      0.476397
      9.150004     16.143019      0.480088
      9.200006     16.242245      0.482800
      9.250008     16.345587      0.485424
      9.300010     16.434322      0.487908
      9.350013     16.534325      0.490082
      9.400015     16.632263      0.492099
      9.449987     16.720407      0.493732
      9.499989     16.811334      0.495324
      9.549991     16.915751      0.496939
      9.599993     17.017051      0.498271
      9.649995     17.116155      0.499714
      9.699998     17.209012      0.500769
      9.750000     17.313945      0.501901
      9.800002     17.412657      0.502798
      9.850004     17.509433      0.503971
      9.900006     17.614232      0.504722
      9.950009     17.710992      0.505825
     10.000011     17.804791      0.509076
     10.050013     17.911182      0.513894
     10.100016     18.006324      0.518841
     10.149986     18.103549      0.523537
     10.199989     18.195934      0.527275
     10.249991     18.292508      0.530762
     10.299994     18.391022      0.534205
     10.349996     18.474802      0.537303
     10.399998     18.569124      0.540031
     10.450000     18.664391      0.542669
     10.500002     18.766611      0.545104
     10.550004     18.862271      0.547296
     10.600007     18.964844      0.549452
     10.650009     19.063264      0.551758
     10.700011     19.156725      0.553529
     10.750013     19.244502      0.555061
     10.800015     19.341812      0.556258
     10.849987     19.433664      0.557395
     10.899989     19.529148      0.558602
     10.949992     19.619966      0.559749
     10.999993     19.720624      0.560843
     11.049996     19.799009      0.561766
     11.099998     19.886035      0.562780
     11.150000     19.989383      0.563570
     11.200003     20.093993      0.564770
     11.250005     20.185091      0.566033
     11.300006     20.278675      0.567108
     11.350009     20.370226      0.568260
     11.400011     20.464829      0.569112
     11.450014     20.560347      0.570429
     11.500016     20.648755      0.571554
     11.549988     20.739309      0.572626
     11.599989     20.836066      0.573470
     11.649992     20.933524      0.574717
     11.699994     21.032223      0.575779
     11.749996     21.128986      0.576673
     11.799999     21.220956      0.578028
     11.850001     21.314715      0.579430
     11.900002     21.411306      0.580630
     11.950005     21.505562      0.581589
     12.000007     21.605651      0.582574
     12.050010     21.695732      0.583521
     12.100011     21.789622      0.583946
     12.150013     21.885109      0.584818
     12.200016     21.976541      0.585357
     12.249986     22.069817      0.585599
     12.299989     22.170854      0.586061
     12.349991     22.264230      0.587453
     12.399994     22.362917      0.591575
     12.449996     22.458448      0.597176
     12.499998     22.549310      0.602950
     12.550000     22.650617      0.608207
     12.600002     22.736300      0.613000
     12.650004     22.835388      0.617314
     12.700007     22.932502      0.621135
     12.750009     23.022345      0.624757
     12.800012     23.120905      0.627712
     12.850013     23.217544      0.630371
     12.900015     23.310012      0.633253
     12.949987     23.406661      0.635480
     12.999989     23.501580      0.637789
     13.049992     23.594941      0.639197
     13.099993     23.697888      0.641074
     13.149996     23.796643      0.642641
     13.199998     23.893458      0.644357
     13.250000     23.986085      0.645779
     13.300003     24.087759      0.647180
     13.350005     24.181708      0.648625
     13.400006     24.268703      0.649742
     13.450009     24.358596      0.650931
     13.500011     24.457810      0.652306
     13.550014     24.558089      0.653299
     13.600016     24.659327      0.654743
     13.649988     24.748610      0.656042
     13.699989     24.848496      0.657699
     13.749992     24.942056      0.658763
     13.799994     25.043350      0.660209
     13.849996     25.127190      0.661023
     13.899999     25.217295      0.662060
     13.950001     25.313038      0.663115
     14.000002     25.401038      0.664248
     14.050005     25.494276      0.665268
     14.100007     25.590397      0.666125
     14.150009     25.689724      0.666591
     14.200012     25.792546      0.667315
     14.250014     25.891190      0.667723
     14.300016     25.982411      0.668762
     14.349987     26.076106      0.669635
     14.399990     26.167146      0.670727
     14.449992     26.269834      0.673601
     14.499995     26.365915      0.677043
     14.549996     26.462765      0.680384
     14.599998     26.556033      0.683330
     14.650001     26.660116      0.686104
     14.700003     26.753181      0.689943
     14.750005     26.849146      0.694436
     14.800008     26.953215      0.699823
     14.850009     27.048709      0.705403
     14.900012     27.141367      0.710303
     14.950014     27.227201      0.715140
     14.999986     27.323372      0.719555
     15.049988     27.426406      0.723345
     15.099990     27.523409      0.727122
     15.149992     27.614985      0.730094
     15.199994     27.713882      0.733013
     15.249997     27.801059      0.735275
     15.299999     27.895998      0.737370
     15.350001     27.996702      0.739562
     15.400004     28.085505      0.741473
     15.450005     28.181296      0.743316
     15.500007     28.283988      0.745096
     15.550010     28.373970      0.747064
     15.600012     28.472043      0.748592
     15.650015     28.566413      0.749905
     15.699986     28.656839      0.751393
     15.749988     28.744937      0.752609
     15.799990     28.835821      0.754193
     15.849993     28.931655      0.755617
     15.899995     29.024010      0.756289
     15.949997     29.122388      0.756955
     16.000000     29.220694      0.758348
     16.050001     29.316494      0.760639
     16.100003     29.408207      0.762701
     16.150006     29.505397      0.764862
     16.200008     29.597141      0.767356
     16.250010     29.696191      0.771249
     16.300012     29.792659      0.781284
     16.350014     29.879481      0.792146
     16.399986     29.980814      0.802532
     16.449988     30.087884      0.811818
     16.499991     30.176922      0.820725
     16.549993     30.263160      0.828559
     16.599995     30.359085      0.836036
     16.649997     30.455183      0.843254
     16.699999     30.562424      0.849384
     16.750002     30.658940      0.854778
     16.800004     30.759233      0.859390
     16.850006     30.853159      0.864150
     16.900008     30.952951      0.868434
     16.950010     31.044595      0.871863
     17.000013     31.142334      0.875437
     17.050015     31.240064      0.878410
     17.099987     31.337788      0.881573
     17.149989     31.436115      0.884359
     17.199990     31.532544      0.887233
     17.249993     31.626654      0.890857
     17.299995     31.718678      0.894302
     17.349998     31.814317      0.897280
     17.399999     31.909548      0.899899
     17.450001     32.003800      0.902074
     17.500004     32.102055      0.904092
     17.550005     32.199030      0.906152
     17.600007     32.295463      0.908189
     17.650010     32.391408      0.910023
     17.700012     32.483861      0.911917
     17.750015     32.568901      0.913500
     17.799986     32.660696      0.914986
     17.849988     32.757960      0.916262
     17.899990     32.850990      0.917837
     17.949993     32.952419      0.918950
     17.999995     33.044314      0.920074
     18.049997     33.139228      0.920902
     18.100000     33.232584      0.921648
     18.150001     33.333085      0.922257
     18.200003     33.427198      0.922989
     18.250006     33.529600      0.923892
     18.300008     33.622982      0.924766
     18.350010     33.724117      0.925430
     18.400012     33.812086      0.926028
     18.450014     33.905907      0.927970
     18.499986     33.997060      0.933074
     18.549988     34.087642      0.938218
     18.599991     34.180153      0.942908
     18.649993     34.279892      0.947373
     18.699995     34.372099      0.951575
     18.749997     34.467903      0.955418
     18.799999     34.565113      0.958388
     18.850002     34.656264      0.961244
     18.900004     34.759663      0.963815
     18.950006     34.854553      0.966251
     19.000008     34.941785      0.968504
     19.050010     35.040435      0.970226
     19.100013     35.128611      0.971838
     19.150015     35.216513      0.973288
     19.199987     35.307223      0.975082
     19.249989     35.405341      0.976391
     19.299990     35.506465      0.978057
     19.349993     35.602970      0.979740
     19.399995     35.699590      0.980705
     19.449998     35.798755      0.981940
     19.500000     35.897770      0.982929
     19.550002     35.992986      0.983881
     19.600004     36.089668      0.984737
     19.650006     36.192550      0.985691
     19.700008     36.282704      0.986671
     19.750011     36.383983      0.987188
     19.800013     36.478187      0.988141
     19.850016     36.576398      0.988571
     19.899986     36.676385      0.988958
     19.949989     36.769424      0.989551
     19.999991     36.866588      0.993380
     20.049994     36.958308      0.998536
     20.099996     37.049401      1.002993
     20.149997     37.146644      1.007736
     20.200000     37.241487      1.011700
     20.250002     37.335391      1.015451
     20.300004     37.435163      1.018583
     20.350007     37.526179      1.021462
     20.400009     37.620910      1.024359
     20.450010     37.720818      1.026599
     20.500013     37.810734      1.028860
     20.550015     37.910580      1.030895
     20.599987     38.004714      1.032909
     20.649989     38.105915      1.034783
     20.699992     38.207981      1.036287
     20.749993     38.306555      1.037884
     20.799996     38.403207      1.039016
     20.849998     38.497517      1.040463
     20.900000     38.589111      1.041459
     20.950003     38.684363      1.042539
     21.000005     38.779244      1.043511
     21.050006     38.872573      1.044264
     21.100009     38.965114      1.045308
     21.150011     39.055114      1.045698
     21.200014     39.145880      1.046232
     21.250016     39.251374      1.046651
     21.299988     39.353643      1.047090
     21.349989     39.455450      1.047424
     21.399991     39.553181      1.047602
     21.449994     39.653345      1.047641
     21.499996     39.744714      1.047798
     21.549999     39.849530      1.048061
     21.600000     39.945695      1.048542
     21.650002     40.042009      1.048913
     21.700005     40.128081      1.049248
     21.750007     40.219585      1.049549
     21.800009     40.309262      1.049759
     21.850012     40.402789      1.050070
     21.900013     40.492457      1.050106
     21.950016     40.590859      1.050321
     21.999987     40.684303      1.050332
     22.049990     40.780610      1.050525
     22.099992     40.870338      1.051919
     22.149994     40.956586      1.053235
     22.199996     41.053131      1.055457
     22.249998     41.151008      1.056968
     22.300001     41.239708      1.058755
     22.350003     41.332355      1.060181
     22.400005     41.432828      1.061281
     22.450008     41.528136      1.063248
     22.500009     41.621237      1.064041
     22.550011     41.726392      1.065731
     22.600014     41.814927      1.066520
     22.649986     41.901933      1.067353
     22.699988     41.996107      1.068712
     22.749989     42.092462      1.069813
     22.799992     42.191388      1.071171
     22.849993     42.283473      1.072026
     22.899996     42.375505      1.073163
     22.949998     42.574302      1.074429
